time (s)	energy (uJ)	charge (mC)	voltage (mV)	crossing#mod 255
429929.501032	10.850260	0.006234	1.740514	122
429930.516851	14.721981	0.006226	2.364503	123
429931.565156	10.850443	0.006227	1.742461	124
429932.580155	14.232197	0.006241	2.280415	125
429933.662164	11.791286	0.006228	1.893366	126
429934.644254	13.236065	0.006244	2.119959	127
429935.728291	11.351267	0.006241	1.818911	128
429936.744212	14.395958	0.006228	2.311397	129
429937.824150	12.494220	0.006230	2.005434	130
429938.840341	15.997354	0.006241	2.563267	131
429939.888324	12.440930	0.006234	1.995731	132
429940.904285	15.983548	0.006225	2.567628	133
429941.986514	11.475946	0.006227	1.842799	134
429943.002580	15.640467	0.006232	2.509610	135
429944.085144	12.996779	0.006239	2.083228	136
429945.065608	14.505805	0.006219	2.332376	137
429946.145742	12.352218	0.006220	1.985873	138
429947.163808	17.382029	0.006240	2.785497	139
429948.243760	13.087959	0.006233	2.099791	140
429949.227258	17.147314	0.006233	2.751197	141
429950.339889	13.651521	0.006255	2.182666	142
429951.323799	17.382347	0.006248	2.782056	143
429952.405761	13.827240	0.006230	2.219588	144
429953.387900	17.474676	0.006238	2.801439	145
429954.469849	12.197790	0.006240	1.954926	146
429955.453958	16.503405	0.006247	2.641669	147
429956.566484	13.173354	0.006268	2.101592	148
429957.549679	16.402832	0.006226	2.634720	149
429958.632991	12.978220	0.006240	2.079961	150
429959.649018	18.217937	0.006229	2.924733	151
429960.729586	14.864347	0.006246	2.379656	152
429961.710546	16.954752	0.006233	2.720112	153
429962.824601	13.775646	0.006218	2.215498	154
429963.808509	18.497116	0.006235	2.966792	155
429964.890452	14.013745	0.006240	2.245942	156
429965.874588	16.840282	0.006234	2.701421	157
429966.989547	16.370615	0.006253	2.617963	158
429967.970057	18.419975	0.006238	2.952682	159
429969.051994	15.263312	0.006237	2.447392	160
429970.034114	17.980934	0.006241	2.881211	161
429971.148561	15.542467	0.006236	2.492556	162
429972.136654	19.831036	0.006220	3.188347	163
429973.213145	14.579421	0.006234	2.338521	164
429974.195247	18.306686	0.006240	2.933813	165
429975.309712	18.612787	0.006269	2.968932	166
429976.293672	19.290312	0.006234	3.094586	167
429977.373797	15.195621	0.006241	2.434794	168
429978.389812	20.321409	0.006235	3.259445	169
429979.474856	19.495451	0.006233	3.127837	170
429980.455274	18.756279	0.006232	3.009677	171
429981.535424	16.513374	0.006252	2.641343	172
429982.555422	20.240723	0.006224	3.252004	173
429983.632070	16.876169	0.006239	2.705059	174
429984.654012	20.947542	0.006218	3.368646	175
429985.698174	17.733574	0.006229	2.846737	176
429986.712511	20.674322	0.006217	3.325647	177
429987.794457	17.093031	0.006230	2.743877	178
429988.810532	20.657784	0.006234	3.313548	179
429989.860580	18.065107	0.006237	2.896323	180
429990.874520	20.928457	0.006229	3.359673	181
429991.958429	18.042290	0.006221	2.900103	182
429992.972526	20.975790	0.006219	3.372641	183
429994.020673	18.546028	0.006238	2.972841	184
429995.037682	21.066992	0.006247	3.372245	185
429996.118079	18.564829	0.006219	2.985078	186
429997.136940	20.972809	0.006216	3.373964	187
429998.184774	19.205511	0.006237	3.079314	188
429999.197315	20.999180	0.006225	3.373152	189
430000.279307	19.017727	0.006233	3.051331	190
430001.294020	21.035961	0.006235	3.373758	191
430002.343904	19.550406	0.006236	3.135036	192
430003.358490	21.010811	0.006229	3.372816	193
430004.442945	19.529778	0.006242	3.128522	194
430005.456859	21.015341	0.006230	3.373424	195
430006.505405	19.435116	0.006237	3.116292	196
430007.553456	21.055235	0.006241	3.373641	197
430008.605513	19.948980	0.006227	3.203840	198
430009.618389	21.007553	0.006227	3.373781	199
430010.700184	20.234873	0.006233	3.246372	200
430011.714464	21.012047	0.006228	3.373850	201
430012.764380	19.299110	0.006234	3.095593	202
430013.780328	21.020782	0.006230	3.374119	203
430014.863034	20.559500	0.006236	3.297113	204
430015.844710	20.993382	0.006223	3.373719	205
430016.925101	18.288134	0.006241	2.930220	206
430017.941096	21.015789	0.006228	3.374216	207
430019.023099	20.745514	0.006229	3.330698	208
430020.005999	21.081934	0.006248	3.374048	209
430021.119034	20.191374	0.006244	3.233509	210
430022.102942	20.968176	0.006214	3.374162	211
430023.186714	20.879351	0.006232	3.350289	212
430024.166952	21.039724	0.006236	3.373705	213
430025.283014	21.044186	0.006241	3.372192	214
430026.265570	21.059605	0.006243	3.373464	215
430027.347635	20.964211	0.006252	3.353442	216
430028.363635	21.085659	0.006250	3.373721	217
430029.442213	21.093204	0.006254	3.372666	218
430030.426180	21.024069	0.006232	3.373337	219
430031.507504	20.646744	0.006226	3.316275	220
430032.524339	21.063322	0.006243	3.373778	221
430033.604313	21.043758	0.006239	3.373081	222
430034.587259	21.041588	0.006238	3.373380	223
430035.669208	21.002888	0.006228	3.372231	224
430036.685162	20.998688	0.006225	3.373270	225
430037.765827	21.031551	0.006234	3.373933	226
430038.745402	21.053997	0.006239	3.374507	227
430039.830620	21.025024	0.006238	3.370433	228
430040.846598	21.016403	0.006229	3.373810	229
430041.929250	21.039572	0.006236	3.374016	230
430042.945222	21.029392	0.006233	3.373985	231
430043.992100	21.034286	0.006234	3.373897	232
430045.010163	21.065821	0.006242	3.374614	233
430046.088639	21.028412	0.006232	3.374451	234
430047.104644	21.043346	0.006236	3.374343	235
430048.155222	21.022001	0.006231	3.373806	236
430049.169188	21.034239	0.006236	3.373151	237
430050.249775	21.173336	0.006276	3.373608	238
430051.266184	21.060511	0.006242	3.373845	239
430052.314205	20.996548	0.006225	3.373113	240
430053.332251	21.049887	0.006239	3.373781	241
430054.414268	21.042583	0.006237	3.373602	242
430055.428473	21.002161	0.006224	3.374270	243
430056.476730	21.030495	0.006232	3.374387	244
430057.526821	21.044167	0.006238	3.373803	245
430058.572875	21.058487	0.006242	3.373841	246
430059.590860	21.040014	0.006236	3.374120	247
430060.640603	21.063757	0.006243	3.374082	248
430061.688911	21.052870	0.006240	3.373775	249
430062.737490	21.051676	0.006240	3.373574	250
430063.751441	21.031681	0.006234	3.373810	251
430064.831550	21.073479	0.006246	3.373791	252
430065.849535	21.115940	0.006260	3.373280	253
430066.897293	21.010529	0.006228	3.373381	254
430067.912911	21.002949	0.006225	3.374070	255
430068.994011	21.044407	0.006236	3.374427	0
430070.010242	21.014122	0.006228	3.374159	1
430071.060633	21.043390	0.006237	3.374110	2
430072.110187	20.950285	0.006209	3.373953	3
430073.155187	20.995924	0.006223	3.373945	4
430074.171203	21.024359	0.006232	3.373652	5
430075.219281	21.040876	0.006236	3.374086	6
430076.268857	21.004234	0.006225	3.374099	7
430077.317289	21.024248	0.006231	3.374085	8
430078.333211	21.037155	0.006234	3.374329	9
430079.415929	21.060179	0.006242	3.373777	10
430080.430386	21.011213	0.006229	3.373308	11
430081.477478	20.990080	0.006221	3.373799	12
430082.495512	21.052717	0.006239	3.374426	13
430083.576007	21.035803	0.006234	3.374241	14
430084.591958	21.008007	0.006226	3.374205	15
430085.640099	21.007227	0.006226	3.374051	16
430086.658212	20.982103	0.006220	3.373574	17
430087.736252	20.994879	0.006224	3.373446	18
430088.752264	21.060163	0.006243	3.373463	19
430089.802104	21.042614	0.006237	3.373755	20
430090.816347	21.020269	0.006228	3.374930	21
430091.898319	21.049274	0.006239	3.373750	22
430092.914295	21.028780	0.006232	3.374064	23
430093.996120	21.027092	0.006231	3.374557	24
430094.978854	21.017179	0.006229	3.373824	25
430096.060758	21.009182	0.006227	3.374144	26
430097.075798	21.040049	0.006235	3.374552	27
430098.159856	21.045429	0.006238	3.373948	28
430099.139849	21.057196	0.006241	3.373975	29
430100.221991	20.995733	0.006223	3.373962	30
430101.236835	21.064459	0.006242	3.374468	31
430102.318853	21.024538	0.006230	3.374742	32
430103.336895	21.021473	0.006230	3.374423	33
430104.384853	21.032316	0.006234	3.373931	34
430105.399348	21.022076	0.006231	3.373886	35
430106.479958	21.042477	0.006238	3.373379	36
430107.496000	21.036043	0.006235	3.373632	37
430108.544058	21.073568	0.006245	3.374254	38
430109.562064	21.059765	0.006242	3.373768	39
430110.617934	21.012390	0.006229	3.373291	40
430111.660902	20.981592	0.006219	3.373852	41
430112.706124	21.060257	0.006242	3.374096	42
430113.724202	21.031744	0.006234	3.373513	43
430114.806197	21.077833	0.006248	3.373330	44
430115.820736	21.037584	0.006236	3.373337	45
430116.870609	20.999269	0.006224	3.373949	46
430117.915778	21.077591	0.006247	3.374214	47
430118.964680	21.028086	0.006234	3.373176	48
430119.979718	21.020174	0.006231	3.373566	49
430121.029525	20.978624	0.006219	3.373500	50
430122.077622	21.036875	0.006235	3.374187	51
430123.125666	20.979553	0.006218	3.373827	52
430124.143668	21.045580	0.006239	3.373455	53
430125.224136	21.003683	0.006226	3.373578	54
430126.239982	20.970972	0.006216	3.373919	55
430127.291563	20.981920	0.006218	3.374179	56
430128.304519	21.014189	0.006229	3.373757	57
430129.385381	21.007786	0.006227	3.373708	58
430130.401401	21.007471	0.006227	3.373499	59
430131.452005	21.018530	0.006230	3.373811	60
430132.498478	20.996767	0.006222	3.374350	61
430133.550121	20.964476	0.006214	3.373499	62
430134.563226	21.029697	0.006234	3.373626	63
430135.608115	20.985979	0.006219	3.374413	64
430136.660253	21.083553	0.006250	3.373542	65
430137.708349	21.020470	0.006231	3.373354	66
430138.726449	21.036196	0.006235	3.373906	67
430139.805816	20.959131	0.006212	3.373981	68
430140.824491	21.007252	0.006226	3.373968	69
430141.873060	21.008659	0.006226	3.374079	70
430142.885497	21.051384	0.006239	3.373930	71
430143.967538	21.014320	0.006229	3.373711	72
430144.982114	21.036461	0.006236	3.373550	73
430146.031987	21.019135	0.006229	3.374215	74
430147.047614	21.012877	0.006228	3.373873	75
430148.128650	21.024694	0.006232	3.373629	76
430149.163550	20.982487	0.006220	3.373299	77
430150.195689	21.010023	0.006228	3.373631	78
430151.208240	21.036415	0.006235	3.373883	79
430152.292292	21.088665	0.006250	3.374417	80
430153.308353	21.020180	0.006229	3.374546	81
430154.400028	20.967918	0.006215	3.373807	82
430155.370364	21.025034	0.006232	3.373651	83
430156.452241	21.038671	0.006237	3.373200	84
430157.466472	20.957289	0.006212	3.373796	85
430158.548480	21.059729	0.006241	3.374285	86
430159.564481	21.052649	0.006240	3.373768	87
430160.615438	21.037781	0.006236	3.373508	88
430161.629512	20.996929	0.006224	3.373501	89
430162.709994	21.031778	0.006234	3.373610	90
430163.725999	21.052788	0.006241	3.373556	91
430164.776061	21.047705	0.006239	3.373388	92
430165.790035	21.049910	0.006239	3.373808	93
430166.872001	21.009455	0.006226	3.374370	94
430167.890106	20.994425	0.006222	3.374372	95
430168.938162	21.029030	0.006233	3.374051	96
430169.956683	20.978737	0.006217	3.374413	97
430171.033212	21.040861	0.006235	3.374491	98
430172.049211	21.016777	0.006230	3.373712	99
430173.097754	21.002577	0.006226	3.373237	100
430174.146683	21.006626	0.006227	3.373455	101
430175.194796	21.066059	0.006243	3.374202	102
430176.210724	21.000341	0.006224	3.374016	103
430177.261538	21.001238	0.006224	3.374314	104
430178.307770	21.029160	0.006232	3.374423	105
430179.357847	21.108889	0.006257	3.373821	106
430180.373833	21.016672	0.006230	3.373412	107
430181.421389	20.998184	0.006225	3.373352	108
430182.469811	21.025850	0.006231	3.374319	109
430183.517885	20.958475	0.006213	3.373481	110
430184.533901	21.014513	0.006227	3.374549	111
430185.614920	21.024254	0.006231	3.374235	112
430186.631408	21.000206	0.006224	3.374042	113
430187.683054	20.940220	0.006206	3.373950	114
430188.730039	21.030396	0.006234	3.373666	115
430189.776923	21.021111	0.006231	3.373673	116
430190.795061	21.008354	0.006227	3.373790	117
430191.841042	21.007338	0.006226	3.373862	118
430192.889107	21.040028	0.006237	3.373307	119
430193.941899	21.004322	0.006227	3.373340	120
430194.953162	20.992945	0.006222	3.373716	121
430196.005219	21.041224	0.006236	3.373940	122
430197.051112	21.026239	0.006233	3.373575	123
430198.099198	21.008730	0.006227	3.373581	124
430199.115210	21.046766	0.006239	3.373549	125
430200.197173	20.987976	0.006221	3.373811	126
430201.215311	21.028149	0.006232	3.374145	127
430202.261233	20.999565	0.006223	3.374352	128
430203.277264	21.045080	0.006237	3.374501	129
430204.359044	20.999920	0.006224	3.374001	130
430205.373856	21.057798	0.006241	3.373837	131
430206.424777	20.986645	0.006220	3.373852	132
430207.438706	20.999098	0.006224	3.373941	133
430208.519679	21.037447	0.006235	3.374097	134
430209.535740	21.029501	0.006232	3.374276	135
430210.586922	21.003210	0.006225	3.374045	136
430211.635827	21.230928	0.006292	3.374370	137
430212.682139	21.019234	0.006230	3.374005	138
430213.696474	21.056480	0.006242	3.373501	139
430214.780461	21.051794	0.006240	3.373871	140
430215.794933	21.030743	0.006233	3.374345	141
430216.843045	21.032619	0.006233	3.374277	142
430217.859058	21.009535	0.006227	3.373715	143
430218.939199	21.004091	0.006225	3.373922	144
430219.957697	21.045895	0.006238	3.373658	145
430221.003693	20.976463	0.006217	3.374129	146
430222.021693	21.041672	0.006237	3.373811	147
430223.102179	21.016073	0.006230	3.373609	148
430224.121072	20.971428	0.006215	3.374314	149
430225.166718	21.137377	0.006264	3.374526	150
430226.182423	21.010025	0.006226	3.374385	151
430227.263415	21.037693	0.006235	3.374295	152
430228.279400	21.015860	0.006228	3.374246	153
430229.329826	21.005394	0.006227	3.373348	154
430230.377984	21.029470	0.006232	3.374309	155
430231.422637	21.023638	0.006231	3.374223	156
430232.440047	21.025402	0.006231	3.374141	157
430233.489818	21.036459	0.006234	3.374471	158
430234.538034	21.076786	0.006246	3.374320	159
430235.586108	21.036440	0.006235	3.373878	160
430236.602161	21.048080	0.006239	3.373635	161
430237.652784	21.032452	0.006235	3.373286	162
